#Column 1: wavenumber k
#Column 2: non-linear density fluctuation power spectrum lcdm
#Column 3: non-linear density fluctuation power spectrum screening exact
#qv = 2.000000
#evaluated at a = 1.000000

0.01  10563.4  10562.7
0.010559  10842.4  10841.6
0.0111492  11109.7  11108.7
0.0117724  11363.5  11362.4
0.0124305  11602  11600.8
0.0131253  11823.8  11822.4
0.013859  12027  12025.5
0.0146337  12210.3  12208.5
0.0154517  12372.2  12370.2
0.0163154  12511.7  12509.4
0.0172274  12627.6  12625.1
0.0181904  12719  12716.2
0.0192072  12785.2  12782.1
0.0202809  12826  12822.4
0.0214145  12840.7  12836.7
0.0226116  12829.1  12824.7
0.0238755  12791.2  12786.3
0.0252101  12727.4  12722
0.0266193  12637.9  12631.9
0.0281073  12522.9  12516.2
0.0296784  12382.8  12375.5
0.0313374  12218.8  12210.8
0.0330891  12031.8  12022.9
0.0349387  11822.1  11812.4
0.0368917  11590.8  11580.3
0.0389539  11339.6  11328.1
0.0411314  11069.9  11057.3
0.0434305  10782.4  10768.7
0.0458582  10478.3  10463.6
0.0484216  10159.9  10144
0.0511283  9829.49  9812.23
0.0539863  9487.51  9468.93
0.057004  9135.64  9115.8
0.0601904  8776.2  8755.09
0.063555  8412.67  8389.92
0.0671076  8044.84  8020.55
0.0708588  7674.49  7648.79
0.0748197  7303.79  7276.76
0.0790019  6937.23  6908.36
0.083418  6573.54  6542.99
0.0880809  6214.23  6182.2
0.0930045  5860.85  5827.53
0.0982033  5518.86  5483.59
0.103693  5185.42  5148.41
0.109489  4861.5  4823.02
0.115609  4547.9  4508.24
0.122071  4250.18  4208.59
0.128895  3964.59  3921.29
0.1361  3691.15  3646.45
0.143708  3430.02  3384.26
0.151741  3186.19  3138.66
0.160223  2955.87  2906.71
0.169179  2737.94  2687.49
0.178636  2532.07  2480.71
0.188621  2342.62  2289.72
0.199165  2166.31  2111.87
0.210298  2000.99  1945.37
0.222053  1846.05  1789.64
0.234465  1705.22  1647.5
0.247572  1576.21  1517.02
0.26141  1456.01  1395.7
0.276023  1343.92  1282.86
0.291452  1243  1180.83
0.307744  1152.33  1088.71
0.324946  1068.21  1003.44
0.34311  989.926  924.352
0.362289  919.861  853.261
0.38254  858.617  790.486
0.403924  801.963  732.527
0.426502  749.215  678.767
0.450343  702.029  630.498
0.475516  662.547  589.279
0.502097  626.168  551.287
0.530163  592.209  515.949
0.559798  561.562  484.002
0.59109  537.826  458.217
0.624131  516.192  434.521
0.659019  495.85  412.326
0.695856  476.88  391.784
0.734754  464.569  376.938
0.775825  453.578  363.39
0.819192  442.864  350.436
0.864984  431.468  337.517
0.913335  427.359  330.454
0.964388  423.837  324.078
1.0183  419.305  317.407
1.07522  411.395  309.025
1.13532  412.577  307.278
1.19878  413.735  305.859
1.26579  411.967  303.029
1.33655  403.587  296.613
1.41126  406.062  297.465
1.49014  409.269  299.063
1.57344  407.012  297.89
1.66139  394.162  290.677
1.75426  393.721  291.421
1.85232  396.534  294.56
1.95586  391.474  293.171
2.06519  372.292  283.088
2.18063  365.325  280.785
2.30253  366.236  283.837
2.43123  357.617  280.762
2.56714  333.013  266.763
2.71063  318.139  259.135
2.86215  316.831  261.05
3.02214  305.882  255.977
3.19107  279.298  239.001
3.36945  258.481  225.698
3.5578  255.882  226.281
3.75667  244.589  219.848
3.96666  219.907  201.938
4.18839  196.543  184.417
4.42251  193.131  183.576
4.66973  182.78  176.463
4.93075  162.023  159.453
5.20637  139.675  140.23
5.4974  136.862  139.145
5.8047  129.022  133.055
6.12917  113.709  119.199
6.47178  94.8886  101.19
6.83354  92.5197  99.7002
7.21552  86.7365  94.5141
7.61886  75.9471  83.7389
8.04474  61.2669  68.38
8.49442  59.6883  67.392
8.96925  55.9475  63.9137
9.47061  49.0053  56.6379
10  38.4515  44.9377
