#Column 1: wavenumber k
#Column 2: non-linear GR
#Column 3: non-linear screening
#Column 4: Mead et al
#evaluated at a = 1.000000

0.01  10563.9  10564  10538.2
0.010559  10842.9  10843  10814.1
0.0111492  11110.3  11110.4  11077
0.0117724  11364.2  11364.3  11325.6
0.0124305  11602.9  11603  11560.4
0.0131253  11824.7  11824.8  11777
0.013859  12028.1  12028.2  11973.9
0.0146337  12211.5  12211.6  12151.2
0.0154517  12373.6  12373.7  12307.2
0.0163154  12513.2  12513.4  12439.4
0.0172274  12629.3  12629.5  12546.9
0.0181904  12721  12721.2  12631.7
0.0192072  12787.5  12787.8  12690.2
0.0202809  12828.4  12828.7  12722.1
0.0214145  12843.4  12843.7  12728.2
0.0226116  12832.1  12832.5  12708.8
0.0238755  12794.7  12795.1  12662.5
0.0252101  12731.2  12731.6  12589.8
0.0266193  12641.9  12642.4  12492.8
0.0281073  12527.3  12527.8  12370.5
0.0296784  12387.9  12388.5  12223.5
0.0313374  12224.4  12225.1  12053.1
0.0330891  12037.7  12038.4  11861
0.0349387  11828.6  11829.4  11647
0.0368917  11598.2  11599.1  11412.3
0.0389539  11347.7  11348.6  11159.2
0.0411314  11078.3  11079.3  10888.5
0.0434305  10791.4  10792.5  10601.1
0.0458582  10488.5  10489.7  10298.9
0.0484216  10171.1  10172.4  9984.06
0.0511283  9840.96  9842.36  9657.42
0.0539863  9499.71  9501.22  9320.74
0.057004  9149.19  9150.82  8976.28
0.0601904  8791.25  8793.01  8625.65
0.063555  8427.78  8429.66  8270.42
0.0671076  8060.66  8062.68  7912.51
0.0708588  7691.81  7693.97  7554.21
0.0748197  7323.09  7325.39  7196.83
0.0790019  6956.31  6958.76  6842.14
0.083418  6593.22  6595.83  6492
0.0880809  6235.47  6238.24  6147.95
0.0930045  5884.59  5887.53  5811.26
0.0982033  5541.98  5545.09  5483.24
0.103693  5208.89  5212.19  5165.23
0.109489  4886.44  4889.93  4857.95
0.115609  4575.56  4579.24  4562.17
0.122071  4277.01  4280.91  4278.54
0.128895  3991.42  3995.53  4007.49
0.1361  3719.22  3723.55  3749.15
0.143708  3460.7  3465.28  3503.61
0.151741  3216.03  3220.85  3270.9
0.160223  2985.21  2990.3  3050.8
0.169179  2768.14  2773.52  2843.04
0.178636  2564.62  2570.3  2647.33
0.188621  2374.35  2380.36  2463.38
0.199165  2196.94  2203.3  2290.78
0.210298  2031.95  2038.69  2129.17
0.222053  1878.9  1886.05  1978.24
0.234465  1737.25  1744.85  1837.62
0.247572  1606.43  1614.52  1706.92
0.26141  1485.88  1494.5  1585.78
0.276023  1374.99  1384.2  1473.84
0.291452  1273.19  1283.05  1370.62
0.307744  1179.89  1190.45  1275.86
0.324946  1094.51  1105.85  1188.56
0.34311  1016.5  1028.69  1108.61
0.362289  945.308  958.436  1035.42
0.38254  880.418  894.584  968.468
0.403924  821.333  836.643  907.299
0.426502  767.577  784.15  851.364
0.450343  718.704  736.668  800.197
0.475516  674.287  693.784  753.381
0.502097  633.93  655.113  710.52
0.530163  597.256  620.293  671.182
0.559798  563.914  588.987  635.006
0.59109  533.578  560.879  601.698
0.624131  505.939  535.678  570.909
0.659019  480.713  513.11  542.338
0.695856  457.633  492.92  515.73
0.734754  436.452  474.87  490.866
0.775825  416.941  458.74  467.489
0.819192  398.786  444.321  445.4
0.864984  381.991  431.418  424.449
0.913335  366.277  419.846  404.466
0.964388  351.477  409.426  385.304
1.0183  337.443  399.982  366.854
1.07522  324.04  391.368  349.041
1.13532  311.149  383.43  331.765
1.19878  298.664  376.022  314.967
1.26579  286.498  369.003  298.617
1.33655  274.575  362.238  282.685
1.41126  262.837  355.6  267.149
1.49014  251.24  349.031  252.008
1.57344  239.752  342.325  237.277
1.66139  228.356  335.436  222.962
1.75426  217.048  328.289  209.082
1.85232  205.832  320.803  195.66
1.95586  194.724  312.916  182.721
2.06519  183.745  304.586  170.283
2.18063  172.925  295.792  158.367
2.30253  162.297  286.524  146.991
2.43123  151.894  276.885  136.165
2.56714  141.776  266.569  125.897
2.71063  131.932  255.904  116.19
2.86215  122.418  244.9  107.043
3.02214  113.263  233.619  98.4486
3.19107  104.495  222.066  90.3972
3.36945  96.1348  210.256  82.8757
3.5578  88.1984  198.292  75.8675
3.75667  80.6976  186.339  69.354
3.96666  73.6391  174.689  63.3144
4.18839  67.0244  162.918  57.7266
4.42251  60.8509  151.417  52.5676
4.66973  55.1118  140.078  47.8135
4.93075  49.7966  129.028  43.4402
5.20637  44.8921  118.4  39.4239
5.4974  40.3822  108.299  35.7412
5.8047  36.2491  98.7505  32.3691
6.12917  32.4734  89.6629  29.2857
6.47178  29.0348  80.9961  26.4703
6.83354  25.9123  72.8139  23.903
7.21552  23.0846  65.3549  21.5649
7.61886  20.5308  58.1233  19.4382
8.04474  18.23  51.5946  17.506
8.49442  16.1623  45.6826  15.7524
8.96925  14.308  40.3128  14.1625
9.47061  12.6488  35.3932  12.7225
10  11.1672  30.9198  11.4198
