#Column 1: wavenumber k
#Column 2: non-linear GR
#Column 3: non-linear screening
#Column 3: Taylor expanded
#evaluated at a = 1.000000

0.1  5452.56  5466.82  5465.89
0.101822  5342.27  5356.72  5355.78
0.103678  5233.12  5247.75  5246.8
0.105567  5125.14  5139.95  5138.99
0.107491  5018.36  5033.36  5032.39
0.10945  4912.83  4928  4927.02
0.111445  4808.57  4823.92  4822.92
0.113475  4705.62  4721.13  4720.12
0.115543  4603.99  4619.68  4618.66
0.117649  4503.72  4519.58  4518.55
0.119793  4404.84  4420.86  4419.82
0.121976  4307.36  4323.54  4322.49
0.124199  4211.31  4227.64  4226.58
0.126462  4116.69  4133.18  4132.12
0.128767  4023.54  4040.18  4039.1
0.131113  3931.86  3948.65  3947.56
0.133503  3841.67  3858.6  3857.5
0.135936  3752.97  3770.04  3768.94
0.138413  3665.78  3682.98  3681.87
0.140935  3580.1  3597.44  3596.32
0.143504  3495.93  3513.4  3512.28
0.146119  3413.29  3430.89  3429.76
0.148782  3332.18  3349.89  3348.75
0.151493  3252.59  3270.42  3269.27
0.154254  3174.52  3192.46  3191.31
0.157065  3097.97  3116.02  3114.87
0.159927  3022.94  3041.1  3039.93
0.162841  2949.43  2967.68  2966.51
0.165809  2877.42  2895.76  2894.59
0.168831  2806.9  2825.34  2824.16
0.171907  2737.88  2756.4  2755.22
0.17504  2670.34  2688.94  2687.75
0.17823  2604.26  2622.94  2621.75
0.181478  2539.64  2558.39  2557.2
0.184785  2476.46  2495.28  2494.08
0.188152  2414.72  2433.59  2432.4
0.191581  2354.38  2373.32  2372.12
0.195073  2295.45  2314.44  2313.24
0.198627  2237.9  2256.94  2255.74
0.202247  2181.72  2200.8  2199.6
0.205933  2126.88  2146.01  2144.8
0.209686  2073.38  2092.54  2091.33
0.213507  2021.19  2040.38  2039.17
0.217398  1970.29  1989.5  1988.29
0.221359  1920.66  1939.89  1938.69
0.225393  1872.29  1891.53  1890.33
0.229501  1825.14  1844.4  1843.2
0.233683  1779.22  1798.48  1797.28
0.237942  1734.48  1753.75  1752.55
0.242278  1690.91  1710.18  1708.98
0.246693  1648.49  1667.75  1666.56
0.251189  1607.2  1626.45  1625.26
0.255766  1567.02  1586.25  1585.07
0.260427  1527.92  1547.13  1545.95
0.265173  1489.89  1509.07  1507.9
0.270005  1452.89  1472.05  1470.88
0.274926  1416.92  1436.04  1434.88
0.279936  1381.94  1401.03  1399.87
0.285037  1347.94  1366.99  1365.83
0.290232  1314.89  1333.9  1332.75
0.295521  1282.78  1301.74  1300.59
0.300906  1251.58  1270.49  1269.35
0.30639  1221.26  1240.12  1238.99
0.311973  1191.82  1210.63  1209.5
0.317659  1163.23  1181.97  1180.85
0.323448  1135.47  1154.14  1153.03
0.329342  1108.51  1127.12  1126.02
0.335344  1082.35  1100.88  1099.79
0.341455  1056.95  1075.41  1074.32
0.347677  1032.3  1050.68  1049.6
0.354013  1008.37  1026.68  1025.61
0.360465  985.161  1003.38  1002.32
0.367034  962.638  980.769  979.718
0.373722  940.786  958.829  957.787
0.380533  919.588  937.538  936.506
0.387468  899.026  916.881  915.859
0.394529  879.081  896.84  895.828
0.401718  859.735  877.398  876.396
0.409039  840.973  858.533  857.542
0.416493  822.776  840.229  839.249
0.424083  805.128  822.474  821.504
0.431811  788.014  805.249  804.291
0.439681  771.416  788.54  787.593
0.447693  755.319  772.329  771.393
0.455852  739.708  756.602  755.678
0.464159  724.568  741.344  740.432
0.472618  709.884  726.539  725.639
0.48123  695.641  712.174  711.286
0.49  681.826  698.234  697.358
0.49893  668.424  684.706  683.842
0.508022  655.422  671.575  670.724
0.51728  642.807  658.829  657.991
0.526706  630.565  646.455  645.629
0.536305  618.684  634.439  633.626
0.546078  607.151  622.77  621.97
0.55603  595.955  611.436  610.649
0.566163  585.084  600.424  599.65
0.57648  574.525  589.724  588.963
0.586986  564.268  579.323  578.575
0.597683  554.301  569.211  568.476
0.608574  544.614  559.377  558.656
0.619665  535.197  549.808  549.1
0.630957  526.039  540.498  539.802
0.642456  517.129  531.44  530.758
0.654163  508.459  522.618  521.95
0.666085  500.019  514.021  513.365
0.678223  491.799  505.641  505
0.690583  483.791  497.473  496.846
0.703168  475.986  489.507  488.893
0.715982  468.375  481.733  481.133
0.729029  460.949  474.143  473.556
0.742315  453.702  466.73  466.156
0.755843  446.624  459.485  458.924
0.769617  439.709  452.4  451.853
0.783642  432.949  445.469  444.936
0.797923  426.229  438.571  438.054
0.812464  419.757  431.926  431.421
0.82727  413.42  425.413  424.922
0.842345  407.21  419.026  418.548
0.857696  401.121  412.76  412.294
0.873326  395.147  406.607  406.154
0.889241  389.283  400.562  400.122
0.905446  383.522  394.62  394.193
0.921947  377.86  388.775  388.36
0.938748  372.29  383.021  382.619
0.955855  366.808  377.355  376.965
0.973274  361.41  371.771  371.392
0.991011  356.09  366.266  365.9
1.00907  350.843  360.838  360.483
1.02746  345.667  355.479  355.134
1.04618  340.556  350.17  349.839
1.06525  335.507  344.931  344.611
1.08466  330.517  339.752  339.443
1.10443  325.581  334.627  334.329
1.12455  320.697  329.554  329.267
1.14505  315.861  324.529  324.253
1.16591  311.071  319.55  319.284
1.18716  306.325  314.615  314.359
1.2088  301.619  309.72  309.474
1.23082  296.951  304.865  304.628
1.25325  292.32  300.046  299.819
1.27609  287.723  295.263  295.046
1.29935  283.158  290.514  290.305
1.32303  278.625  285.796  285.596
1.34714  274.122  281.109  280.917
1.37169  269.647  276.451  276.268
1.39668  265.199  271.821  271.646
1.42214  260.778  267.219  267.053
1.44805  256.383  262.646  262.487
1.47444  252.012  258.1  257.948
1.50131  247.667  253.582  253.437
1.52867  243.346  249.092  248.954
1.55653  239.049  244.632  244.503
1.58489  234.777  240.191  240.067
1.61378  230.528  235.77  235.651
1.64318  226.304  231.38  231.267
1.67313  222.105  227.016  226.91
1.70362  217.931  222.681  222.58
1.73467  213.782  218.374  218.279
1.76628  209.659  214.098  214.008
1.79846  205.563  209.854  209.769
1.83124  201.494  205.642  205.561
1.86461  197.454  201.461  201.384
1.89859  193.443  197.312  197.239
1.93319  189.461  193.193  193.124
1.96842  185.51  189.106  189.04
2.00429  181.591  185.051  184.99
2.04082  177.705  181.03  180.973
2.07801  173.853  177.046  176.993
2.11588  170.035  173.101  173.052
2.15443  166.253  169.196  169.15
2.1937  162.508  165.334  165.291
2.23367  158.802  161.515  161.475
2.27438  155.134  157.742  157.704
2.31583  151.506  154.014  153.978
2.35803  147.919  150.329  150.295
2.401  144.375  146.689  146.656
2.44475  140.873  143.094  143.064
2.48931  137.42  139.542  139.513
2.53467  134.003  136.029  136.002
2.58086  130.636  132.569  132.544
2.62789  127.316  129.158  129.135
2.67578  124.043  125.797  125.777
2.72455  120.819  122.488  122.47
2.7742  117.643  119.232  119.215
2.82475  114.517  116.031  116.015
2.87623  111.442  112.885  112.87
2.92864  108.416  109.795  109.781
2.98201  105.442  106.762  106.748
3.03636  102.52  103.783  103.77
3.09169  99.6499  100.857  100.845
3.14803  96.832  97.9837  97.972
3.2054  94.0667  95.1626  95.1516
3.26381  91.3543  92.3948  92.3847
3.32329  88.6949  89.6811  89.6719
3.38386  86.0887  87.022  87.0137
3.44552  83.5355  84.4179  84.4105
3.50831  81.0356  81.8692  81.8626
3.57224  78.5888  79.3758  79.37
3.63734  76.195  76.9379  76.9327
3.70363  73.8652  74.5667  74.5621
3.77112  71.5765  72.2392  72.2351
3.83985  69.3403  69.9572  69.9635
3.90982  67.1561  67.7553  67.7532
3.98107  65.0245  65.5898  65.5865
4.05362  62.9427  63.482  63.4786
4.12749  60.9126  61.4271  61.4236
4.20271  58.933  59.4223  59.4189
4.2793  57.0034  57.4669  57.4637
4.35728  55.1232  55.5611  55.5582
4.43669  53.2919  53.7047  53.7021
4.51754  51.5089  51.8974  51.8951
4.59987  49.7735  50.1388  50.1367
4.68369  48.0852  48.4283  48.4265
4.76904  46.4432  46.7653  46.7637
4.85595  44.8468  45.1491  45.1476
4.94445  43.2954  43.5789  43.5776
5.03455  41.7881  42.054  42.0529
5.1263  40.3243  40.5735  40.5726
5.21972  38.9031  39.1368  39.136
5.31484  37.5238  37.7431  37.7423
5.4117  36.1856  36.3915  36.3909
5.51032  34.8877  35.0815  35.081
5.61073  33.6294  33.8125  33.812
5.71298  32.4096  32.5838  32.5832
5.81709  31.2277  31.3937  31.393
5.9231  30.0828  30.2402  30.2395
6.03104  28.9742  29.1225  29.1219
6.14095  27.9009  28.0402  28.0396
6.25286  26.8623  26.9928  26.9923
6.36681  25.8573  25.9795  25.979
6.48283  24.8853  24.9996  24.9992
6.60097  23.9453  24.0522  24.0519
6.72126  23.0367  23.1366  23.1363
6.84375  22.1586  22.2519  22.2517
6.96847  21.3101  21.3974  21.3972
7.09546  20.4906  20.5722  20.5719
7.22476  19.7003  19.7764  19.7762
7.35642  18.9364  19.0076  19.0074
7.49048  18.1978  18.2642  18.264
7.62699  17.4862  17.5482  17.548
7.76598  16.7997  16.8576  16.8574
7.9075  16.1376  16.1916  16.1915
8.0516  15.4992  15.5496  15.5495
8.19833  14.8837  14.9308  14.9307
8.34773  14.2905  14.3346  14.3345
8.49986  13.7189  13.7603  13.7602
8.65476  13.1682  13.2075  13.2074
8.81248  12.6378  12.6752  12.675
8.97307  12.1271  12.1622  12.162
9.13659  11.6354  11.6682  11.6681
9.30309  11.162  11.1926  11.1926
9.47263  10.7064  10.735  10.735
9.64526  10.2681  10.2947  10.2947
9.82103  9.84642  9.87126  9.8712
10  9.44085  9.464  9.46394
